\ Suzaku-XIS X-ray spectrum of RX J1713.7-3946
\ Spectrum from Tanaka et al. (2008), ApJ 685 988
\ http://adsabs.harvard.edu/abs/2008ApJ...685..988T
\ SED file courtesy of Takaaki Tanaka
\
|   energy|         flux|   flux_error|
|   double|       double|       double|
|       eV|erg / (cm2 s)|erg / (cm2 s)|
|     null|         null|         null|
   549.326   4.53469e-10   2.03377e-11 
   708.093   4.46471e-10   1.41931e-11 
   781.106   4.58057e-10   1.27689e-11 
   823.076   4.53179e-10   1.25955e-11 
   854.103   4.29312e-10   1.16145e-11 
   883.304   4.15769e-10   1.16404e-11 
   912.494   4.14761e-10   1.06057e-11 
   941.694   4.06684e-10   9.22621e-12 
   969.081   4.00457e-10   8.81052e-12 
   989.145   4.14248e-10   1.12971e-11 
  1003.760   4.25126e-10   1.04895e-11 
  1018.357   4.10176e-10   1.05078e-11 
  1032.952   4.18428e-10   9.84839e-12 
  1047.539   3.88831e-10   9.59423e-12 
  1062.160   4.02684e-10   9.18979e-12 
  1076.738   3.97387e-10   8.71507e-12 
  1091.340   3.88439e-10   8.51628e-12 
  1105.961   3.94308e-10   8.05772e-12 
  1120.547   4.04135e-10   8.08081e-12 
  1135.141   4.00066e-10   7.65825e-12 
  1149.741   3.88445e-10   7.56421e-12 
  1164.340   4.03802e-10   7.47956e-12 
  1178.963   4.04125e-10   7.49734e-12 
  1193.548   4.08449e-10   7.21363e-12 
  1208.148   3.99001e-10   7.05393e-12 
  1222.757   4.02945e-10   6.98812e-12 
  1237.343   3.82396e-10   6.87803e-12 
  1251.959   3.85257e-10    6.8304e-12 
  1266.543   3.82093e-10   6.67062e-12 
  1281.150   3.84903e-10   6.71522e-12 
  1295.746    3.9692e-10   6.80796e-12 
  1310.358   4.13319e-10   6.85587e-12 
  1324.952   4.04391e-10   6.79991e-12 
  1339.553   4.10564e-10   6.87413e-12 
  1354.160   3.97507e-10   6.75964e-12 
  1368.737   3.98158e-10   6.68739e-12 
  1383.343   3.94451e-10   6.66757e-12 
  1397.945    4.0468e-10   6.45874e-12 
  1412.538   3.90165e-10   6.51814e-12 
  1427.151   3.85436e-10   6.45225e-12 
  1441.750   3.91542e-10   6.41963e-12 
  1456.364   4.01583e-10    6.4521e-12 
  1470.957   3.98357e-10   6.37622e-12 
  1485.559   3.97193e-10   6.43583e-12 
  1500.134   3.96577e-10    6.4373e-12 
  1514.747   3.85359e-10   6.35412e-12 
  1529.361   3.81664e-10   6.21811e-12 
  1543.939   3.82921e-10    6.2003e-12 
  1558.547   3.90222e-10   6.44403e-12 
  1573.150   3.79237e-10   6.40496e-12 
  1587.742   3.85521e-10   6.36619e-12 
  1602.360   3.86345e-10    6.5714e-12 
  1616.963   3.92945e-10   6.65259e-12 
  1631.549   3.81691e-10   6.47722e-12 
  1646.152   3.80382e-10   6.48424e-12 
  1660.734   3.75973e-10    6.3712e-12 
  1675.367   3.84631e-10   6.53686e-12 
  1689.935   3.78971e-10    6.4682e-12 
  1908.930   3.55384e-10   8.48482e-12 
  1923.535   3.64506e-10   8.31864e-12 
  1938.162   3.61935e-10   8.48567e-12 
  1952.765   3.58422e-10   8.29556e-12 
  1967.343   3.79448e-10    8.2759e-12 
  1981.938   3.79676e-10   8.19461e-12 
  1996.549   3.94403e-10   8.41684e-12 
  2011.129   3.69509e-10   8.38932e-12 
  2025.769   3.85483e-10   8.31621e-12 
  2040.328   3.69794e-10    8.3728e-12 
  2054.944   3.77223e-10   8.34916e-12 
  2069.569   3.78828e-10   8.28663e-12 
  2084.155   3.76018e-10   8.23218e-12 
  2098.747   3.92178e-10   8.31257e-12 
  2113.343   3.48358e-10   8.17501e-12 
  2127.943   3.74959e-10   8.11418e-12 
  2142.545   3.53448e-10   8.58472e-12 
  2157.148    3.5929e-10   8.54244e-12 
  2171.751   3.58994e-10   8.27954e-12 
  2186.352   3.55862e-10   8.37644e-12 
  2202.774   3.73064e-10   7.69037e-12 
  2224.693   3.59854e-10   6.79442e-12 
  2252.060   3.48397e-10   6.74721e-12 
  2281.235   3.62265e-10   6.96369e-12 
  2310.468    3.5949e-10   7.32782e-12 
  2339.645    3.4299e-10    7.3213e-12 
  2368.863    3.5186e-10    7.3361e-12 
  2398.060   3.53811e-10   7.70006e-12 
  2427.225   3.56285e-10   7.87433e-12 
  2456.462   3.57358e-10   7.88343e-12 
  2485.650   3.63747e-10   7.60948e-12 
  2514.838   3.56334e-10   7.55151e-12 
  2544.076   3.62215e-10   7.46385e-12 
  2573.238   3.50514e-10   7.29786e-12 
  2602.436   3.60245e-10   7.43644e-12 
  2631.661   3.51528e-10   7.40927e-12 
  2660.848   3.43844e-10   7.19471e-12 
  2690.048   3.48933e-10   7.43918e-12 
  2719.255   3.48483e-10   7.39792e-12 
  2748.464   3.46154e-10   7.37465e-12 
  2777.666     3.431e-10   7.81931e-12 
  2806.855   3.49784e-10   7.61889e-12 
  2836.025   3.45034e-10   7.69594e-12 
  2865.233   3.41921e-10   7.69417e-12 
  2894.476   3.30666e-10   7.55505e-12 
  2923.681   3.35734e-10   7.70599e-12 
  2952.841   3.34065e-10   7.87119e-12 
  2982.016   3.36657e-10    7.7924e-12 
  3011.272   3.47248e-10   7.64391e-12 
  3040.465   3.33524e-10   8.00486e-12 
  3069.658   3.43728e-10   7.94107e-12 
  3098.846   3.15155e-10    8.1794e-12 
  3128.023   3.37102e-10   8.15197e-12 
  3157.257   3.40717e-10   8.28479e-12 
  3186.471   3.43957e-10   8.05941e-12 
  3217.511   3.35108e-10   7.44595e-12 
  3250.349   3.32208e-10    7.5066e-12 
  3283.145   3.25251e-10   7.72521e-12 
  3316.042   3.27542e-10   7.70229e-12 
  3350.734   3.23381e-10   7.26384e-12 
  3388.988   3.13183e-10   6.97839e-12 
  3429.178    3.2336e-10   6.84408e-12 
  3471.123   3.07946e-10    6.7809e-12 
  3514.957   3.31784e-10   6.79001e-12 
  3558.771   3.19094e-10   6.56218e-12 
  3602.550   3.12805e-10   6.69263e-12 
  3646.364   3.10607e-10   6.88102e-12 
  3690.116   2.99385e-10   6.74985e-12 
  3733.963   3.06253e-10   6.96574e-12 
  3777.722   3.03287e-10   7.03414e-12 
  3821.554   2.87908e-10   7.16531e-12 
  3865.360   2.98232e-10   7.08577e-12 
  3909.129   3.14904e-10   7.03225e-12 
  3952.938   3.10727e-10    7.3761e-12 
  3996.778    2.9517e-10   7.02104e-12 
  4040.545   2.87762e-10   7.16382e-12 
  4084.322   2.91769e-10   7.27202e-12 
  4128.193   2.87618e-10   7.28532e-12 
  4171.959   2.88927e-10    7.5429e-12 
  4221.240   2.78351e-10   6.58095e-12 
  4274.152   2.84775e-10   7.10942e-12 
  4327.031   2.81292e-10   6.74008e-12 
  4383.692   2.75901e-10    6.6424e-12 
  4442.015   2.85914e-10   6.59164e-12 
  4498.627   2.81353e-10   7.01232e-12 
  4555.227   2.69548e-10   6.84653e-12 
  4613.601   2.78867e-10   6.99699e-12 
  4671.970   2.72354e-10   6.84866e-12 
  4730.423   2.75209e-10    6.8907e-12 
  4790.601   2.67521e-10   6.82077e-12 
  4854.450   2.77305e-10   6.54851e-12 
  4923.795   2.56017e-10    6.3177e-12 
  4996.892   2.62909e-10   6.61456e-12 
  5069.907   2.59055e-10    6.3551e-12 
  5142.804   2.59322e-10   6.65701e-12 
  5215.909   2.71326e-10   6.87848e-12 
  5290.662   2.54689e-10   6.79219e-12 
  5369.205   2.58465e-10   6.62438e-12 
  5453.057   2.56905e-10   6.44211e-12 
  5540.641   2.51142e-10   6.39733e-12 
  5628.336   2.49633e-10   6.79802e-12 
  5719.525   2.52166e-10   6.92126e-12 
  5816.209   2.37788e-10   7.10457e-12 
  5914.799   2.39627e-10   7.23092e-12 
  6020.742   2.34863e-10   6.64522e-12 
  6135.642   2.35294e-10   6.41764e-12 
  6256.047   2.31305e-10   6.64655e-12 
  6380.137   2.31721e-10   7.39744e-12 
  6511.634   2.28258e-10   7.02937e-12 
  6648.444   2.19072e-10   8.25373e-12 
  6800.017   2.15656e-10   6.88725e-12 
  6975.093   2.19117e-10   6.70608e-12 
  7174.143   2.05622e-10   6.44148e-12 
  7376.664   2.23509e-10   9.24634e-12 
  7571.989   2.03084e-10   1.07492e-11 
  7825.642   2.12021e-10    7.3551e-12 
  8174.101    1.9975e-10   7.66732e-12 
  8650.476   1.82529e-10   7.66169e-12 
  9313.009   1.78858e-10    9.9122e-12 
 10287.504   1.85201e-10   1.35795e-11 
